Time [s],Voltage [V]
4.00E-03,-1.0599999
8.00E-03,-1.04
1.20E-02,-1.0599999
1.60E-02,-1.0799999
2.00E-02,-1.0599999
2.40E-02,-1.0599999
2.80E-02,-1.0599999
3.20E-02,-1.0599999
3.60E-02,-1.0599999
4.00E-02,-1.0799999
4.40E-02,-1.04
4.80E-02,-1.0599999
5.20E-02,-1.0599999
5.60E-02,-1.0599999
6.00E-02,-1.0599999
6.40E-02,-1.0599999
6.80E-02,-1.0799999
7.20E-02,-1.0599999
7.60E-02,-1.0599999
8.00E-02,-1.04
8.40E-02,-1.0799999
8.80E-02,-1.0599999
9.20E-02,-1.0599999
9.60E-02,-1.0599999
1.00E-01,-1.0599999
1.04E-01,-1.0799999
1.08E-01,-1.0599999
1.12E-01,-1.0599999
1.16E-01,-1.0599999
1.20E-01,-1.0599999
1.24E-01,-1.0599999
1.28E-01,-1.0599999
1.32E-01,-1.0599999
1.36E-01,-1.0799999
1.40E-01,-1.0599999
1.44E-01,-1.0799999
1.48E-01,-1.0799999
1.52E-01,-1.0599999
1.56E-01,-1.0799999
1.60E-01,-1.0599999
1.64E-01,-1.0599999
1.68E-01,-1.0799999
1.72E-01,-1.0599999
1.76E-01,-1.0799999
1.80E-01,-1.0799999
1.84E-01,-1.0599999
1.88E-01,-1.0799999
1.92E-01,-1.0799999
1.96E-01,-1.0799999
2.00E-01,-1.0599999
2.04E-01,-1.0799999
2.08E-01,-1.0599999
2.12E-01,-1.0599999
2.16E-01,-1.0799999
2.20E-01,-1.0599999
2.24E-01,-1.0799999
2.28E-01,-1.0799999
2.32E-01,-1.0599999
2.36E-01,-1.0799999
2.40E-01,-1.0599999
2.44E-01,-1.0799999
2.48E-01,-1.0599999
2.52E-01,-1.0799999
2.56E-01,-1.0599999
2.60E-01,-1.0799999
2.64E-01,-1.0599999
2.68E-01,-1.04
2.72E-01,-1.0599999
2.76E-01,-1.0599999
2.80E-01,-1.0599999
2.84E-01,-1.0799999
2.88E-01,-1.0599999
2.92E-01,-1.04
2.96E-01,-1.0599999
3.00E-01,-1.0799999
3.04E-01,-1.0799999
3.08E-01,-1.0599999
3.12E-01,-1.04
3.16E-01,-1.04
3.20E-01,-1.02
3.24E-01,-1.04
3.28E-01,-1.04
3.32E-01,-1.02
3.36E-01,-1.02
3.40E-01,-1.02
3.44E-01,-1
3.48E-01,-1
3.52E-01,-9.80E-01
3.56E-01,-1
3.60E-01,-9.80E-01
3.64E-01,-9.80E-01
3.68E-01,-9.60E-01
3.72E-01,-9.60E-01
3.76E-01,-9.60E-01
3.80E-01,-9.20E-01
3.84E-01,-9.20E-01
3.88E-01,-9.00E-01
3.92E-01,-9.20E-01
3.96E-01,-8.80E-01
4.00E-01,-8.80E-01
4.04E-01,-8.60E-01
4.08E-01,-8.60E-01
4.12E-01,-8.20E-01
4.16E-01,-8.20E-01
4.20E-01,-8.20E-01
4.24E-01,-8.00E-01
4.28E-01,-7.80E-01
4.32E-01,-7.60E-01
4.36E-01,-7.60E-01
4.40E-01,-7.60E-01
4.44E-01,-7.40E-01
4.48E-01,-7.20E-01
4.52E-01,-7.00E-01
4.56E-01,-6.80E-01
4.60E-01,-6.60E-01
4.64E-01,-6.40E-01
4.68E-01,-6.40E-01
4.72E-01,-6.00E-01
4.76E-01,-6.00E-01
4.80E-01,-5.80E-01
4.84E-01,-5.60E-01
4.88E-01,-5.40E-01
4.92E-01,-5.40E-01
4.96E-01,-5.00E-01
5.00E-01,-4.80E-01
5.04E-01,-4.80E-01
5.08E-01,-4.40E-01
5.12E-01,-4.20E-01
5.16E-01,-4.20E-01
5.20E-01,-4.00E-01
5.24E-01,-3.60E-01
5.28E-01,-3.60E-01
5.32E-01,-3.40E-01
5.36E-01,-3.20E-01
5.40E-01,-3.20E-01
5.44E-01,-2.80E-01
5.48E-01,-2.60E-01
5.52E-01,-2.40E-01
5.56E-01,-2.20E-01
5.60E-01,-2.00E-01
5.64E-01,-1.80E-01
5.68E-01,-1.60E-01
5.72E-01,-1.40E-01
5.76E-01,-1.20E-01
5.80E-01,-1.00E-01
5.84E-01,-1.00E-01
5.88E-01,-6.00E-02
5.92E-01,-4.00E-02
5.96E-01,-2.00E-02
6.00E-01,0
6.04E-01,4.00E-02
6.08E-01,2.00E-02
6.12E-01,4.00E-02
6.16E-01,6.00E-02
6.20E-01,8.00E-02
6.24E-01,1.20E-01
6.28E-01,1.20E-01
6.32E-01,1.40E-01
6.36E-01,1.40E-01
6.40E-01,1.80E-01
6.44E-01,2.00E-01
6.48E-01,2.00E-01
6.52E-01,2.20E-01
6.56E-01,2.40E-01
6.60E-01,2.60E-01
6.64E-01,2.80E-01
6.68E-01,3.00E-01
6.72E-01,3.00E-01
6.76E-01,3.20E-01
6.80E-01,3.40E-01
6.84E-01,3.40E-01
6.88E-01,3.80E-01
6.92E-01,3.60E-01
6.96E-01,4.00E-01
7.00E-01,4.20E-01
7.04E-01,4.20E-01
7.08E-01,4.40E-01
7.12E-01,4.60E-01
7.16E-01,4.60E-01
7.20E-01,4.80E-01
7.24E-01,5.00E-01
7.28E-01,5.00E-01
7.32E-01,5.20E-01
7.36E-01,5.20E-01
7.40E-01,5.40E-01
7.44E-01,5.60E-01
7.48E-01,5.80E-01
7.52E-01,5.80E-01
7.56E-01,5.80E-01
7.60E-01,6.00E-01
7.64E-01,6.20E-01
7.68E-01,6.00E-01
7.72E-01,6.20E-01
7.76E-01,6.20E-01
7.80E-01,6.40E-01
7.84E-01,6.20E-01
7.88E-01,6.60E-01
7.92E-01,6.60E-01
7.96E-01,6.40E-01
8.00E-01,6.60E-01
8.04E-01,6.60E-01
8.08E-01,6.80E-01
8.12E-01,7.00E-01
8.16E-01,6.80E-01
8.20E-01,6.80E-01
8.24E-01,7.00E-01
8.28E-01,7.00E-01
8.32E-01,7.20E-01
8.36E-01,7.20E-01
8.40E-01,7.20E-01
8.44E-01,7.20E-01
8.48E-01,7.00E-01
8.52E-01,7.40E-01
8.56E-01,7.20E-01
8.60E-01,7.20E-01
8.64E-01,7.20E-01
8.68E-01,7.00E-01
8.72E-01,7.20E-01
8.76E-01,7.20E-01
8.80E-01,7.20E-01
8.84E-01,7.20E-01
8.88E-01,7.20E-01
8.92E-01,7.40E-01
8.96E-01,7.20E-01
9.00E-01,7.20E-01
9.04E-01,7.40E-01
9.08E-01,7.20E-01
9.12E-01,7.00E-01
9.16E-01,7.00E-01
9.20E-01,6.80E-01
9.24E-01,6.80E-01
9.28E-01,6.80E-01
9.32E-01,6.80E-01
9.36E-01,6.80E-01
9.40E-01,6.80E-01
9.44E-01,6.60E-01
9.48E-01,6.60E-01
9.52E-01,6.40E-01
9.56E-01,6.40E-01
9.60E-01,6.40E-01
9.64E-01,6.20E-01
9.68E-01,6.20E-01
9.72E-01,6.00E-01
9.76E-01,6.20E-01
9.80E-01,6.20E-01
9.84E-01,6.20E-01
9.88E-01,6.00E-01
9.92E-01,6.00E-01
9.96E-01,5.60E-01
1,5.60E-01
1.0040001,5.40E-01
1.008,5.40E-01
1.0120001,5.20E-01
1.016,5.00E-01
1.0200001,5.00E-01
1.024,4.80E-01
1.028,4.80E-01
1.0320001,4.60E-01
1.036,4.60E-01
1.0400001,4.40E-01
1.044,4.40E-01
1.0480001,4.20E-01
1.052,4.00E-01
1.056,4.20E-01
1.0600001,4.00E-01
1.064,3.60E-01
1.0680001,3.60E-01
1.072,3.40E-01
1.0760001,3.20E-01
1.08,3.20E-01
1.0840001,3.20E-01
1.0880001,3.20E-01
1.092,2.80E-01
1.0960001,2.80E-01
1.1,2.60E-01
1.1040001,2.40E-01
1.108,2.40E-01
1.1120001,2.20E-01
1.1160001,2.00E-01
1.12,1.80E-01
1.1240001,1.80E-01
1.128,1.80E-01
1.1320001,1.40E-01
1.136,1.40E-01
1.1400001,1.40E-01
1.1440001,1.20E-01
1.148,8.00E-02
1.1520001,8.00E-02
1.156,8.00E-02
1.1600001,6.00E-02
1.164,4.00E-02
1.1680001,2.00E-02
1.1720001,0
1.176,0
1.1800001,-2.00E-02
1.184,0
1.1880001,-4.00E-02
1.192,-4.00E-02
1.1960001,-8.00E-02
1.2,-6.00E-02
1.2040001,-8.00E-02
1.2080001,-1.20E-01
1.212,-1.00E-01
1.2160001,-1.40E-01
1.22,-1.40E-01
1.2240001,-1.40E-01
1.228,-1.60E-01
1.2320001,-2.00E-01
1.2360001,-2.00E-01
1.24,-2.00E-01
1.2440001,-2.20E-01
1.248,-2.20E-01
1.2520001,-2.40E-01
1.256,-2.40E-01
1.2600001,-2.60E-01
1.2640001,-2.80E-01
1.268,-2.80E-01
1.2720001,-3.00E-01
1.276,-3.00E-01
1.2800001,-2.80E-01
1.284,-3.20E-01
1.2880001,-3.60E-01
1.2920001,-3.60E-01
1.296,-3.60E-01
1.3000001,-3.80E-01
1.304,-3.80E-01
1.3080001,-3.80E-01
1.312,-4.00E-01
1.3160001,-4.00E-01
1.3200001,-4.00E-01
1.3240001,-4.20E-01
1.3280001,-4.00E-01
1.332,-4.20E-01
1.3360001,-4.40E-01
1.34,-4.40E-01
1.3440001,-4.40E-01
1.348,-4.60E-01
1.3520001,-4.60E-01
1.3560001,-4.60E-01
1.36,-4.60E-01
1.3640001,-4.80E-01
1.368,-4.80E-01
1.3720001,-5.00E-01
1.376,-4.80E-01
1.3800001,-4.80E-01
1.3840001,-5.00E-01
1.388,-5.00E-01
1.3920001,-5.00E-01
1.396,-5.20E-01
1.4000001,-5.20E-01
1.404,-5.20E-01
1.4080001,-5.40E-01
1.4120001,-5.20E-01
1.416,-5.20E-01
1.4200001,-5.20E-01
1.424,-5.40E-01
1.4280001,-5.20E-01
1.432,-5.40E-01
1.4360001,-5.40E-01
1.4400001,-5.40E-01
1.4440001,-5.60E-01
1.4480001,-5.40E-01
1.452,-5.60E-01
1.4560001,-5.60E-01
1.46,-5.40E-01
1.4640001,-5.40E-01
1.4680001,-5.40E-01
1.4720001,-5.40E-01
1.4760001,-5.40E-01
1.48,-5.20E-01
1.4840001,-5.20E-01
1.488,-5.40E-01
1.4920001,-5.20E-01
1.4960001,-5.20E-01
1.5000001,-5.40E-01
1.5040001,-5.20E-01
1.508,-5.20E-01
1.5120001,-5.20E-01
1.516,-5.00E-01
1.5200001,-5.20E-01
1.524,-5.00E-01
1.5280001,-5.00E-01
1.5320001,-4.80E-01
1.536,-4.80E-01
1.5400001,-5.00E-01
1.544,-5.00E-01
1.5480001,-4.80E-01
1.552,-4.80E-01
1.5560001,-4.60E-01
1.5600001,-4.60E-01
1.5640001,-4.60E-01
1.5680001,-4.60E-01
1.572,-4.40E-01
1.5760001,-4.00E-01
1.58,-4.20E-01
1.5840001,-4.20E-01
1.5880001,-4.20E-01
1.5920001,-4.20E-01
1.5960001,-4.20E-01
1.6,-4.00E-01
1.6040001,-3.80E-01
1.608,-3.80E-01
1.6120001,-3.60E-01
1.6160001,-3.60E-01
1.6200001,-3.60E-01
1.6240001,-3.40E-01
1.628,-3.60E-01
1.6320001,-3.40E-01
1.636,-3.40E-01
1.6400001,-3.20E-01
1.6440001,-3.00E-01
1.6480001,-3.00E-01
1.6520001,-2.80E-01
1.6560001,-3.00E-01
1.6600001,-2.60E-01
1.664,-2.60E-01
1.6680001,-2.40E-01
1.6720001,-2.60E-01
1.6760001,-2.40E-01
1.6800001,-2.20E-01
1.6840001,-2.00E-01
1.6880001,-2.00E-01
1.692,-2.00E-01
1.6960001,-1.80E-01
1.7,-2.00E-01
1.7040001,-1.60E-01
1.7080001,-1.60E-01
1.7120001,-1.40E-01
1.7160001,-1.20E-01
1.72,-1.20E-01
1.7240001,-1.00E-01
1.728,-1.20E-01
1.7320001,-1.00E-01
1.7360001,-8.00E-02
1.7400001,-6.00E-02
1.7440001,-6.00E-02
1.748,-4.00E-02
1.7520001,-4.00E-02
1.756,-2.00E-02
1.7600001,-2.00E-02
1.7640001,-2.00E-02
1.7680001,0
1.7720001,0
1.7760001,2.00E-02
1.7800001,2.00E-02
1.784,2.00E-02
1.7880001,2.00E-02
1.7920001,4.00E-02
1.7960001,4.00E-02
1.8000001,6.00E-02
1.8040001,8.00E-02
1.8080001,1.00E-01
1.812,1.00E-01
1.8160001,1.20E-01
1.8200001,1.20E-01
1.8240001,1.00E-01
1.8280001,1.40E-01
1.8320001,1.40E-01
1.8360001,1.40E-01
1.84,1.40E-01
1.8440001,1.60E-01
1.848,1.80E-01
1.8520001,1.80E-01
1.8560001,1.80E-01
1.8600001,2.00E-01
1.8640001,2.00E-01
1.868,2.00E-01
1.8720001,2.00E-01
1.876,2.20E-01
1.8800001,2.40E-01
1.8840001,2.40E-01
1.8880001,2.40E-01
1.8920001,2.40E-01
1.8960001,2.60E-01
1.9000001,2.60E-01
1.904,2.80E-01
1.9080001,2.40E-01
1.9120001,2.80E-01
1.9160001,2.80E-01
1.9200001,3.00E-01
1.9240001,3.00E-01
1.9280001,3.00E-01
1.932,3.20E-01
1.9360001,3.20E-01
1.9400001,3.20E-01
1.9440001,3.20E-01
1.9480001,3.20E-01
1.9520001,3.20E-01
1.9560001,3.40E-01
1.96,3.60E-01
1.9640001,3.40E-01
1.9680001,3.40E-01
1.9720001,3.20E-01
1.9760001,3.40E-01
1.9800001,3.40E-01
1.9840001,3.60E-01
1.988,3.60E-01
1.9920001,3.60E-01
1.9960001,3.60E-01
2,3.40E-01
2.0040002,3.80E-01
2.0080001,3.40E-01
2.0120001,3.40E-01
2.016,3.60E-01
2.02,3.60E-01
2.0240002,3.60E-01
2.0280001,3.60E-01
2.0320001,3.40E-01
2.036,3.40E-01
2.0400002,3.60E-01
2.0440001,3.60E-01
2.0480001,3.60E-01
2.052,3.80E-01
2.056,3.40E-01
2.0600002,3.60E-01
2.0640001,3.60E-01
2.0680001,3.60E-01
2.072,3.60E-01
2.0760002,3.60E-01
2.0800002,3.60E-01
2.0840001,3.40E-01
2.0880001,3.60E-01
2.092,3.60E-01
2.0960002,3.40E-01
2.1000001,3.40E-01
2.1040001,3.40E-01
2.108,3.40E-01
2.112,3.20E-01
2.1160002,3.20E-01
2.1200001,3.20E-01
2.1240001,3.20E-01
2.128,3.40E-01
2.1320002,3.20E-01
2.1360002,3.20E-01
2.1400001,3.00E-01
2.1440001,3.00E-01
2.148,2.80E-01
2.1520002,3.00E-01
2.1560001,2.80E-01
2.1600001,2.80E-01
2.164,2.60E-01
2.1680002,2.80E-01
2.1720002,2.80E-01
2.1760001,2.80E-01
2.1800001,2.60E-01
2.184,2.40E-01
2.1880002,2.40E-01
2.1920002,2.60E-01
2.1960001,2.20E-01
2.2,2.40E-01
2.204,2.20E-01
2.2080002,2.20E-01
2.2120001,2.20E-01
2.2160001,2.00E-01
2.22,2.00E-01
2.2240002,1.80E-01
2.2280002,2.00E-01
2.2320001,1.80E-01
2.2360001,1.60E-01
2.24,1.60E-01
2.2440002,1.80E-01
2.2480001,1.60E-01
2.2520001,1.40E-01
2.256,1.60E-01
2.26,1.00E-01
2.2640002,1.00E-01
2.2680001,1.20E-01
2.2720001,8.00E-02
2.276,1.00E-01
2.2800002,1.00E-01
2.2840002,8.00E-02
2.2880001,1.00E-01
2.2920001,8.00E-02
2.296,1.00E-01
2.3000002,6.00E-02
2.3040001,6.00E-02
2.3080001,6.00E-02
2.312,6.00E-02
2.3160002,2.00E-02
2.3200002,2.00E-02
2.3240001,2.00E-02
2.3280001,2.00E-02
2.332,2.00E-02
2.3360002,2.00E-02
2.3400002,0
2.3440001,0
2.348,-2.00E-02
2.352,-2.00E-02
2.3560002,-4.00E-02
2.3600001,-4.00E-02
2.3640001,-4.00E-02
2.368,-4.00E-02
2.3720002,-4.00E-02
2.3760002,-8.00E-02
2.3800001,-8.00E-02
2.3840001,-8.00E-02
2.388,-8.00E-02
2.3920002,-1.00E-01
2.3960001,-8.00E-02
2.4000001,-1.20E-01
2.404,-1.00E-01
2.4080002,-1.20E-01
2.4120002,-1.20E-01
2.4160001,-1.20E-01
2.4200001,-1.20E-01
2.424,-1.20E-01
2.4280002,-1.40E-01
2.4320002,-1.20E-01
2.4360001,-1.40E-01
2.4400001,-1.60E-01
2.444,-1.60E-01
2.4480002,-1.60E-01
2.4520001,-1.60E-01
2.4560001,-1.80E-01
2.46,-2.00E-01
2.4640002,-2.00E-01
2.4680002,-2.00E-01
2.4720001,-2.00E-01
2.4760001,-2.00E-01
2.48,-2.00E-01
2.4840002,-2.00E-01
2.4880002,-2.20E-01
2.4920001,-2.20E-01
2.4960001,-2.40E-01
2.5,-2.20E-01
2.5040002,-2.20E-01
2.5080001,-2.20E-01
2.5120001,-2.20E-01
2.516,-2.60E-01
2.5200002,-2.60E-01
2.5240002,-2.40E-01
2.5280001,-2.60E-01
2.5320001,-2.60E-01
2.536,-2.40E-01
2.5400002,-2.40E-01
2.5440001,-2.80E-01
2.5480001,-2.60E-01
2.552,-2.80E-01
2.5560002,-2.80E-01
2.5600002,-2.80E-01
2.5640001,-2.80E-01
2.5680001,-2.80E-01
2.572,-2.80E-01
2.5760002,-2.60E-01
2.5800002,-2.80E-01
2.5840001,-2.60E-01
2.5880001,-2.80E-01
2.592,-2.60E-01
2.5960002,-2.80E-01
2.6000001,-3.00E-01
2.6040001,-2.80E-01
2.608,-3.00E-01
2.6120002,-3.00E-01
2.6160002,-2.80E-01
2.6200001,-3.00E-01
2.6240001,-2.80E-01
2.628,-2.80E-01
2.6320002,-2.80E-01
2.6360002,-2.80E-01
2.6400001,-2.60E-01
2.6440001,-2.80E-01
2.6480002,-2.80E-01
2.6520002,-2.80E-01
2.6560001,-3.00E-01
2.6600001,-2.80E-01
2.664,-2.80E-01
2.6680002,-3.00E-01
2.6720002,-2.60E-01
2.6760001,-2.60E-01
2.6800001,-2.80E-01
2.684,-2.80E-01
2.6880002,-2.80E-01
2.6920002,-2.60E-01
2.6960001,-2.60E-01
2.7,-2.80E-01
2.7040002,-2.60E-01
2.7080002,-2.60E-01
2.7120001,-2.40E-01
2.7160001,-2.60E-01
2.72000003,-2.40E-01
2.72400022,-2.40E-01
2.72800016,-2.40E-01
2.73200011,-2.40E-01
2.73600006,-2.40E-01
2.74000025,-2.40E-01
2.7440002,-2.20E-01
2.74800014,-2.20E-01
2.75200009,-2.40E-01
2.75600004,-2.20E-01
2.76000023,-2.20E-01
2.76400018,-2.20E-01
2.76800013,-1.80E-01
2.77200007,-2.00E-01
2.77600002,-2.00E-01
2.78000021,-1.80E-01
2.78400016,-1.80E-01
2.78800011,-2.00E-01
2.79200006,-1.80E-01
2.79600024,-1.80E-01
2.80000019,-1.80E-01
2.80400014,-1.60E-01
2.80800009,-1.60E-01
2.81200004,-1.60E-01
2.81600022,-1.60E-01
2.82000017,-1.40E-01
2.82400012,-1.40E-01
2.82800007,-1.20E-01
2.83200002,-1.40E-01
2.8360002,-1.20E-01
2.84000015,-1.20E-01
2.8440001,-1.20E-01
2.84800005,-1.20E-01
2.85200024,-1.20E-01
2.85600019,-1.00E-01
2.86000013,-1.00E-01
2.86400008,-1.00E-01
2.86800003,-1.00E-01
2.87200022,-8.00E-02
2.87600017,-6.00E-02
2.88000011,-8.00E-02
2.88400006,-8.00E-02
2.88800025,-6.00E-02
2.8920002,-6.00E-02
2.89600015,-6.00E-02
2.9000001,-4.00E-02
2.90400004,-4.00E-02
2.90800023,-4.00E-02
2.91200018,-2.00E-02
2.91600013,-2.00E-02
2.92000008,-2.00E-02
2.92400002,-2.00E-02
2.92800021,0
2.93200016,-2.00E-02
2.93600011,0
2.94000006,0
2.94400024,0
2.94800019,2.00E-02
2.95200014,2.00E-02
2.95600009,2.00E-02
2.96000004,2.00E-02
2.96400023,4.00E-02
2.96800017,2.00E-02
2.97200012,4.00E-02
2.97600007,2.00E-02
2.98000026,4.00E-02
2.98400021,6.00E-02
2.98800015,4.00E-02
2.9920001,6.00E-02
2.99600005,6.00E-02
3.00000024,6.00E-02
3.00400019,8.00E-02
3.00800014,8.00E-02
3.01200008,8.00E-02
3.01600003,1.00E-01
3.02000022,8.00E-02
3.02400017,8.00E-02
3.02800012,8.00E-02
3.03200006,8.00E-02
3.03600025,1.00E-01
3.0400002,1.00E-01
3.04400015,1.00E-01
3.0480001,1.00E-01
3.05200005,1.20E-01
3.05600023,1.00E-01
3.06000018,1.20E-01
3.06400013,1.20E-01
3.06800008,1.20E-01
3.07200003,1.20E-01
3.07600021,1.40E-01
3.08000016,1.40E-01
3.08400011,1.40E-01
3.08800006,1.40E-01
3.09200025,1.40E-01
3.09600019,1.60E-01
3.10000014,1.40E-01
3.10400009,1.60E-01
3.10800004,1.60E-01
3.11200023,1.60E-01
3.11600018,1.60E-01
3.12000012,1.40E-01
3.12400007,1.60E-01
3.12800026,1.40E-01
3.13200021,1.60E-01
3.13600016,1.60E-01
3.1400001,1.60E-01
3.14400005,1.80E-01
3.14800024,1.60E-01
3.15200019,1.60E-01
3.15600014,1.40E-01
3.16000009,1.60E-01
3.16400003,1.60E-01
3.16800022,1.60E-01
3.17200017,1.60E-01
3.17600012,1.60E-01
3.18000007,1.80E-01
3.18400025,1.60E-01
3.1880002,1.80E-01
3.19200015,1.60E-01
3.1960001,1.80E-01
3.20000005,1.80E-01
3.20400023,1.80E-01
3.20800018,2.00E-01
3.21200013,1.80E-01
3.21600008,1.80E-01
3.22000027,1.60E-01
3.22400022,1.80E-01
3.22800016,1.60E-01
3.23200011,1.60E-01
3.23600006,1.60E-01
3.24000025,1.60E-01
3.2440002,1.80E-01
3.24800014,1.80E-01
3.25200009,1.60E-01
3.25600004,1.60E-01
3.26000023,1.60E-01
3.26400018,1.60E-01
3.26800013,1.60E-01
3.27200007,1.60E-01
3.27600026,1.60E-01
3.28000021,1.60E-01
3.28400016,1.60E-01
3.28800011,1.60E-01
3.29200006,1.60E-01
3.29600024,1.60E-01
3.30000019,1.60E-01
3.30400014,1.60E-01
3.30800009,1.40E-01
3.31200027,1.40E-01
3.31600022,1.40E-01
3.32000017,1.40E-01
3.32400012,1.40E-01
3.32800007,1.20E-01
3.33200026,1.40E-01
3.3360002,1.20E-01
3.34000015,1.20E-01
3.3440001,1.20E-01
3.34800005,1.20E-01
3.35200024,1.40E-01
3.35600019,1.00E-01
3.36000013,1.00E-01
3.36400008,1.20E-01
3.36800027,1.00E-01
3.37200022,1.20E-01
3.37600017,8.00E-02
3.38000011,1.00E-01
3.38400006,8.00E-02
3.38800025,8.00E-02
3.3920002,8.00E-02
3.39600015,8.00E-02
3.4000001,8.00E-02
3.40400004,1.00E-01
3.40800023,8.00E-02
3.41200018,8.00E-02
3.41600013,6.00E-02
3.42000008,6.00E-02
3.42400026,6.00E-02
3.42800021,6.00E-02
3.43200016,4.00E-02
3.43600011,6.00E-02
3.44000006,4.00E-02
3.44400024,4.00E-02
3.44800019,2.00E-02
3.45200014,2.00E-02
3.45600009,4.00E-02
3.46000028,2.00E-02
3.46400023,2.00E-02
3.46800017,2.00E-02
3.47200012,2.00E-02
3.47600007,2.00E-02
3.48000026,2.00E-02
3.48400021,2.00E-02
3.48800015,2.00E-02
3.4920001,0
3.49600005,2.00E-02
3.50000024,-2.00E-02
3.50400019,0
3.50800014,0
3.51200008,0
3.51600027,-2.00E-02
3.52000022,-2.00E-02
3.52400017,-2.00E-02
3.52800012,-4.00E-02
3.53200006,-4.00E-02
3.53600025,-2.00E-02
3.5400002,-4.00E-02
3.54400015,-2.00E-02
3.5480001,-6.00E-02
3.55200028,-6.00E-02
3.55600023,-6.00E-02
3.56000018,-4.00E-02
3.56400013,-6.00E-02
3.56800008,-6.00E-02
3.57200027,-6.00E-02
3.57600021,-6.00E-02
3.58000016,-6.00E-02
3.58400011,-6.00E-02
3.58800006,-6.00E-02
3.59200025,-8.00E-02
3.59600019,-6.00E-02
3.60000014,-8.00E-02
3.60400009,-8.00E-02
3.60800028,-8.00E-02
3.61200023,-1.00E-01
3.61600018,-8.00E-02
3.62000012,-1.00E-01
3.62400007,-1.00E-01
3.62800026,-1.00E-01
3.63200021,-8.00E-02
3.63600016,-1.00E-01
3.6400001,-1.00E-01
3.64400029,-1.00E-01
3.64800024,-1.00E-01
3.65200019,-1.20E-01
3.65600014,-1.00E-01
3.66000009,-1.00E-01
3.66400027,-1.20E-01
3.66800022,-1.20E-01
3.67200017,-1.20E-01
3.67600012,-1.20E-01
3.68000007,-1.40E-01
3.68400025,-1.20E-01
3.6880002,-1.40E-01
3.69200015,-1.40E-01
3.6960001,-1.20E-01
3.70000029,-1.40E-01
3.70400023,-1.40E-01
3.70800018,-1.40E-01
3.71200013,-1.40E-01
3.71600008,-1.40E-01
3.72000027,-1.40E-01
3.72400022,-1.40E-01
3.72800016,-1.40E-01
3.73200011,-1.40E-01
3.73600006,-1.60E-01
3.74000025,-1.20E-01
3.7440002,-1.40E-01
3.74800014,-1.20E-01
3.75200009,-1.60E-01
3.75600028,-1.60E-01
3.76000023,-1.60E-01
3.76400018,-1.40E-01
3.76800013,-1.60E-01
3.77200007,-1.40E-01
3.77600026,-1.40E-01
3.78000021,-1.40E-01
3.78400016,-1.20E-01
3.78800011,-1.80E-01
3.79200029,-1.40E-01
3.79600024,-1.60E-01
3.80000019,-1.40E-01
3.80400014,-1.40E-01
3.80800009,-1.60E-01
3.81200027,-1.60E-01
3.81600022,-1.40E-01
3.82000017,-1.60E-01
3.82400012,-1.40E-01
3.82800007,-1.20E-01
3.83200026,-1.40E-01
3.8360002,-1.40E-01
3.84000015,-1.60E-01
3.8440001,-1.40E-01
3.84800029,-1.20E-01
3.85200024,-1.40E-01
3.85600019,-1.40E-01
3.86000013,-1.40E-01
3.86400008,-1.40E-01
3.86800027,-1.40E-01
3.87200022,-1.40E-01
3.87600017,-1.20E-01
3.88000011,-1.40E-01
3.8840003,-1.20E-01
3.88800025,-1.40E-01
3.8920002,-1.20E-01
3.89600015,-1.20E-01
3.9000001,-1.20E-01
3.90400028,-1.20E-01
3.90800023,-1.40E-01
3.91200018,-1.20E-01
3.91600013,-1.20E-01
3.92000008,-1.00E-01
3.92400026,-1.00E-01
3.92800021,-1.20E-01
3.93200016,-1.00E-01
3.93600011,-1.00E-01
3.9400003,-1.00E-01
3.94400024,-1.00E-01
3.94800019,-1.00E-01
3.95200014,-8.00E-02
3.95600009,-1.20E-01
3.96000028,-1.00E-01
3.96400023,-8.00E-02
3.96800017,-8.00E-02
3.97200012,-1.00E-01
3.97600007,-8.00E-02
3.98000026,-6.00E-02
3.98400021,-8.00E-02
3.98800015,-8.00E-02
3.9920001,-6.00E-02
3.99600029,-8.00E-02
4,-6.00E-02
4.00400019,-8.00E-02
4.00800037,-6.00E-02
4.01200008,-6.00E-02
4.01600027,-6.00E-02
4.01999998,-6.00E-02
4.02400017,-4.00E-02
4.02800035,-4.00E-02
4.03200006,-4.00E-02
4.03600025,-6.00E-02
4.03999996,-4.00E-02
4.04400015,-6.00E-02
4.04800034,-2.00E-02
4.05200005,-6.00E-02
4.05600023,-4.00E-02
4.06000042,-2.00E-02
4.06400013,-4.00E-02
4.06800032,-4.00E-02
4.07200003,-2.00E-02
4.07600021,-2.00E-02
4.0800004,-2.00E-02
4.08400011,-2.00E-02
4.0880003,0
4.09200001,-2.00E-02
4.09600019,0
4.10000038,0
4.10400009,0
4.10800028,0
4.11199999,0
4.11600018,0
4.12000036,0
4.12400007,2.00E-02
4.12800026,2.00E-02
4.13199997,2.00E-02
4.13600016,2.00E-02
4.14000034,0
4.14400005,2.00E-02
4.14800024,2.00E-02
4.15200043,2.00E-02
4.15600014,2.00E-02
4.16000032,2.00E-02
4.16400003,2.00E-02
4.16800022,4.00E-02
4.17200041,4.00E-02
4.17600012,2.00E-02
4.18000031,2.00E-02
4.18400002,4.00E-02
4.1880002,4.00E-02
4.19200039,4.00E-02
4.1960001,2.00E-02
4.20000029,4.00E-02
4.204,4.00E-02
4.20800018,6.00E-02
4.21200037,6.00E-02
4.21600008,6.00E-02
4.22000027,6.00E-02
4.22399998,4.00E-02
4.22800016,6.00E-02
4.23200035,4.00E-02
4.23600006,4.00E-02
4.24000025,6.00E-02
4.24400043,8.00E-02
4.24800014,6.00E-02
4.25200033,6.00E-02
4.25600004,8.00E-02
4.26000023,8.00E-02
4.26400042,6.00E-02
4.26800013,8.00E-02
4.27200031,8.00E-02
4.27600002,6.00E-02
4.28000021,8.00E-02
4.2840004,8.00E-02
4.28800011,8.00E-02
4.29200029,8.00E-02
4.296,6.00E-02
4.30000019,8.00E-02
4.30400038,8.00E-02
4.30800009,6.00E-02
4.31200027,8.00E-02
4.31599998,8.00E-02
4.32000017,6.00E-02
4.32400036,6.00E-02
4.32800007,6.00E-02
4.33200026,6.00E-02
4.33600044,8.00E-02
4.34000015,8.00E-02
4.34400034,8.00E-02
4.34800005,6.00E-02
4.35200024,8.00E-02
4.35600042,8.00E-02
4.36000013,8.00E-02
4.36400032,8.00E-02
4.36800003,6.00E-02
4.37200022,8.00E-02
4.3760004,1.00E-01
4.38000011,1.00E-01
4.3840003,8.00E-02
4.38800001,8.00E-02
4.3920002,8.00E-02
4.39600039,8.00E-02
4.4000001,8.00E-02
4.40400028,8.00E-02
4.40799999,1.00E-01
4.41200018,8.00E-02
4.41600037,8.00E-02
4.42000008,6.00E-02
4.42400026,8.00E-02
4.42799997,8.00E-02
4.43200016,6.00E-02
4.43600035,6.00E-02
4.44000006,6.00E-02
4.44400024,6.00E-02
4.44800043,6.00E-02
4.45200014,6.00E-02
4.45600033,8.00E-02
4.46000004,6.00E-02
4.46400023,8.00E-02
4.46800041,6.00E-02
4.47200012,6.00E-02
4.47600031,8.00E-02
4.48000002,8.00E-02
4.48400021,4.00E-02
4.48800039,6.00E-02
4.4920001,6.00E-02
4.49600029,6.00E-02
4.5,6.00E-02
4.50400019,6.00E-02
4.50800037,4.00E-02
4.51200008,4.00E-02
4.51600027,4.00E-02
4.51999998,6.00E-02
4.52400017,4.00E-02
4.52800035,6.00E-02
4.53200006,4.00E-02
4.53600025,6.00E-02
4.54000044,4.00E-02
4.54400015,4.00E-02
4.54800034,4.00E-02
4.55200005,2.00E-02
4.55600023,2.00E-02
4.56000042,4.00E-02
4.56400013,4.00E-02
4.56800032,2.00E-02
4.57200003,4.00E-02
4.57600021,4.00E-02
4.5800004,2.00E-02
4.58400011,2.00E-02
4.5880003,0
4.59200001,4.00E-02
4.59600019,2.00E-02
4.60000038,2.00E-02
4.60400009,0
4.60800028,2.00E-02
4.61199999,0
4.61600018,2.00E-02
4.62000036,2.00E-02
4.62400007,0
4.62800026,2.00E-02
4.63200045,2.00E-02
4.63600016,0
4.64000034,0
4.64400005,0
4.64800024,-2.00E-02
4.65200043,-2.00E-02
4.65600014,0
4.66000032,0
4.66400003,0
4.66800022,-2.00E-02
4.67200041,-2.00E-02
4.67600012,0
4.68000031,0
4.68400002,0
4.6880002,-2.00E-02
4.69200039,0
4.6960001,-2.00E-02
4.70000029,-2.00E-02
4.704,-2.00E-02
4.70800018,-2.00E-02
4.71200037,-4.00E-02
4.71600008,-4.00E-02
4.72000027,-2.00E-02
4.72400045,-4.00E-02
4.72800016,-4.00E-02
4.73200035,-4.00E-02
4.73600006,-4.00E-02
4.74000025,-2.00E-02
4.74400043,-6.00E-02
4.74800014,-4.00E-02
4.75200033,-6.00E-02
4.75600004,-4.00E-02
4.76000023,-6.00E-02
4.76400042,-4.00E-02
4.76800013,-4.00E-02
4.77200031,-4.00E-02
4.77600002,-6.00E-02
4.78000021,-4.00E-02
4.7840004,-6.00E-02
4.78800011,-4.00E-02
4.79200029,-6.00E-02
4.796,-6.00E-02
4.80000019,-6.00E-02
4.80400038,-8.00E-02
4.80800009,-4.00E-02
4.81200027,-6.00E-02
4.81600046,-6.00E-02
4.82000017,-6.00E-02
4.82400036,-6.00E-02
4.82800007,-6.00E-02
4.83200026,-6.00E-02
4.83600044,-6.00E-02
4.84000015,-8.00E-02
4.84400034,-6.00E-02
4.84800005,-8.00E-02
4.85200024,-6.00E-02
4.85600042,-6.00E-02
4.86000013,-6.00E-02
4.86400032,-8.00E-02
4.86800003,-8.00E-02
4.87200022,-8.00E-02
4.8760004,-8.00E-02
4.88000011,-8.00E-02
4.8840003,-6.00E-02
4.88800001,-8.00E-02
4.8920002,-6.00E-02
4.89600039,-6.00E-02
4.9000001,-6.00E-02
4.90400028,-1.00E-01
4.90800047,-8.00E-02
4.91200018,-8.00E-02
4.91600037,-8.00E-02
4.92000008,-1.00E-01
4.92400026,-1.00E-01
4.92800045,-6.00E-02
4.93200016,-6.00E-02
4.93600035,-1.00E-01
4.94000006,-8.00E-02
4.94400024,-8.00E-02
4.94800043,-8.00E-02
4.95200014,-8.00E-02
4.95600033,-1.00E-01
4.96000004,-1.00E-01
4.96400023,-8.00E-02
4.96800041,-6.00E-02
4.97200012,-1.00E-01
4.97600031,-8.00E-02
4.98000002,-1.00E-01
4.98400021,-8.00E-02
4.98800039,-6.00E-02
4.9920001,-8.00E-02
4.99600029,-6.00E-02
5,-8.00E-02
5.00400019,-8.00E-02
5.00800037,-8.00E-02
5.01200008,-6.00E-02
5.01600027,-8.00E-02
5.02000046,-6.00E-02
5.02400017,-8.00E-02
5.02800035,-6.00E-02
5.03200006,-8.00E-02
5.03600025,-6.00E-02
5.04000044,-8.00E-02
5.04400015,-8.00E-02
5.04800034,-6.00E-02
5.05200005,-6.00E-02
5.05600023,-6.00E-02
5.06000042,-8.00E-02
5.06400013,-8.00E-02
5.06800032,-1.00E-01
5.07200003,-6.00E-02
5.07600021,-8.00E-02
5.0800004,-6.00E-02
5.08400011,-6.00E-02
5.0880003,-6.00E-02
5.09200001,-8.00E-02
5.09600019,-6.00E-02
5.10000038,-6.00E-02
5.10400009,-4.00E-02
5.10800028,-6.00E-02
5.11200047,-4.00E-02
5.11600018,-4.00E-02
5.12000036,-6.00E-02
5.12400007,-6.00E-02
5.12800026,-4.00E-02
5.13200045,-4.00E-02
5.13600016,-4.00E-02
5.14000034,-6.00E-02
5.14400005,-6.00E-02
5.14800024,-4.00E-02
5.15200043,-6.00E-02
5.15600014,-4.00E-02
5.16000032,-4.00E-02
5.16400003,-4.00E-02
5.16800022,-4.00E-02
5.17200041,-4.00E-02
5.17600012,-4.00E-02
5.18000031,-4.00E-02
5.18400002,-2.00E-02
5.1880002,-2.00E-02
5.19200039,-2.00E-02
5.1960001,-2.00E-02
5.20000029,-4.00E-02
5.20400047,-4.00E-02
5.20800018,-2.00E-02
5.21200037,-4.00E-02
5.21600008,-2.00E-02
5.22000027,0
5.22400045,-4.00E-02
5.22800016,-2.00E-02
5.23200035,-2.00E-02
5.23600006,-2.00E-02
5.24000025,-4.00E-02
5.24400043,0
5.24800014,-2.00E-02
5.25200033,-2.00E-02
5.25600004,-2.00E-02
5.26000023,0
5.26400042,-2.00E-02
5.26800013,-2.00E-02
5.27200031,0
5.27600002,-2.00E-02
5.28000021,0
5.2840004,0
5.28800011,0
5.29200029,2.00E-02
5.29600048,-2.00E-02
5.30000019,0
5.30400038,2.00E-02
5.30800009,2.00E-02
5.31200027,0
5.31600046,0
5.32000017,0
5.32400036,2.00E-02
5.32800007,2.00E-02
5.33200026,2.00E-02
5.33600044,2.00E-02
5.34000015,2.00E-02
5.34400034,2.00E-02
5.34800005,2.00E-02
5.35200024,2.00E-02
5.35600042,2.00E-02
5.36000013,0
5.36400032,2.00E-02
5.36800003,2.00E-02
5.37200022,2.00E-02
5.3760004,2.00E-02
5.38000011,0
5.3840003,2.00E-02
5.38800049,2.00E-02
5.3920002,2.00E-02
5.39600039,2.00E-02
5.4000001,2.00E-02
5.40400028,2.00E-02
5.40800047,4.00E-02
5.41200018,4.00E-02
5.41600037,2.00E-02
5.42000008,2.00E-02
5.42400026,2.00E-02
5.42800045,2.00E-02
5.43200016,2.00E-02
5.43600035,4.00E-02
5.44000006,2.00E-02
5.44400024,4.00E-02
5.44800043,2.00E-02
5.45200014,2.00E-02
5.45600033,2.00E-02
5.46000004,2.00E-02
5.46400023,4.00E-02
5.46800041,2.00E-02
5.47200012,4.00E-02
5.47600031,2.00E-02
5.4800005,2.00E-02
5.48400021,4.00E-02
5.48800039,4.00E-02
5.4920001,4.00E-02
5.49600029,2.00E-02
5.50000048,2.00E-02
5.50400019,4.00E-02
5.50800037,4.00E-02
5.51200008,4.00E-02
5.51600027,2.00E-02
5.52000046,2.00E-02
5.52400017,2.00E-02
5.52800035,4.00E-02
5.53200006,4.00E-02
5.53600025,2.00E-02
5.54000044,2.00E-02
5.54400015,2.00E-02
5.54800034,4.00E-02
5.55200005,4.00E-02
5.55600023,4.00E-02
5.56000042,4.00E-02
5.56400013,4.00E-02
5.56800032,2.00E-02
5.57200003,2.00E-02
5.57600021,2.00E-02
5.5800004,2.00E-02
5.58400011,4.00E-02
5.5880003,4.00E-02
5.59200048,4.00E-02
5.59600019,2.00E-02
5.60000038,4.00E-02
5.60400009,4.00E-02
5.60800028,2.00E-02
5.61200047,4.00E-02
5.61600018,2.00E-02
5.62000036,4.00E-02
5.62400007,2.00E-02
5.62800026,4.00E-02
5.63200045,2.00E-02
5.63600016,2.00E-02
5.64000034,4.00E-02
5.64400005,2.00E-02
5.64800024,2.00E-02
5.65200043,2.00E-02
5.65600014,4.00E-02
5.66000032,2.00E-02
5.66400003,4.00E-02
5.66800022,2.00E-02
5.67200041,0
5.67600012,2.00E-02
5.68000031,0
5.68400049,2.00E-02
5.6880002,2.00E-02
5.69200039,2.00E-02
5.6960001,0
5.70000029,2.00E-02
5.70400047,2.00E-02
5.70800018,2.00E-02
5.71200037,2.00E-02
5.71600008,2.00E-02
5.72000027,2.00E-02
5.72400045,2.00E-02
5.72800016,2.00E-02
5.73200035,2.00E-02
5.73600006,0
5.74000025,2.00E-02
5.74400043,0
5.74800014,0
5.75200033,2.00E-02
5.75600004,0
5.76000023,0
5.76400042,0
5.76800013,2.00E-02
5.77200031,0
5.7760005,0
5.78000021,-2.00E-02
5.7840004,0
5.78800011,-2.00E-02
5.79200029,0
5.79600048,0
5.80000019,0
5.80400038,0
5.80800009,0
5.81200027,0
5.81600046,0
5.82000017,0
5.82400036,-2.00E-02
5.82800007,0
5.83200026,-2.00E-02
5.83600044,0
5.84000015,2.00E-02
5.84400034,-2.00E-02
5.84800005,-2.00E-02
5.85200024,0
5.85600042,-2.00E-02
5.86000013,-2.00E-02
5.86400032,-2.00E-02
5.86800051,-2.00E-02
5.87200022,-2.00E-02
5.8760004,-4.00E-02
5.88000011,0
5.8840003,0
5.88800049,-2.00E-02
5.8920002,-2.00E-02
5.89600039,-2.00E-02
5.9000001,-4.00E-02
5.90400028,-2.00E-02
5.90800047,-4.00E-02
5.91200018,-2.00E-02
5.91600037,-2.00E-02
5.92000008,-4.00E-02
5.92400026,-2.00E-02
5.92800045,-2.00E-02
5.93200016,-4.00E-02
5.93600035,-4.00E-02
5.94000006,-4.00E-02
5.94400024,-2.00E-02
5.94800043,-4.00E-02
5.95200014,-6.00E-02
5.95600033,-4.00E-02
5.96000051,-2.00E-02
5.96400023,-2.00E-02
5.96800041,-2.00E-02
5.97200012,-2.00E-02
5.97600031,-2.00E-02
5.9800005,-2.00E-02
5.98400021,-2.00E-02
5.98800039,-4.00E-02
5.9920001,-2.00E-02
5.99600029,-4.00E-02
6.00000048,-4.00E-02
6.00400019,-2.00E-02
6.00800037,-4.00E-02
6.01200008,-4.00E-02
6.01600027,-4.00E-02
6.02000046,-4.00E-02
6.02400017,-4.00E-02
6.02800035,-4.00E-02
6.03200006,-4.00E-02
6.03600025,-4.00E-02
6.04000044,-4.00E-02
6.04400015,-4.00E-02
6.04800034,-4.00E-02
6.05200052,-6.00E-02
6.05600023,-4.00E-02
6.06000042,-4.00E-02
6.06400013,-4.00E-02
6.06800032,-4.00E-02
6.0720005,-4.00E-02
6.07600021,-4.00E-02
6.0800004,-4.00E-02
6.08400011,-4.00E-02
6.0880003,-2.00E-02
6.09200048,-6.00E-02
6.09600019,-4.00E-02
6.10000038,-4.00E-02
6.10400009,-4.00E-02
6.10800028,-4.00E-02
6.11200047,-6.00E-02
6.11600018,-6.00E-02
6.12000036,-4.00E-02
6.12400007,-4.00E-02
6.12800026,-4.00E-02
6.13200045,-4.00E-02
6.13600016,-4.00E-02
6.14000034,-4.00E-02
6.14400005,-4.00E-02
6.14800024,-4.00E-02
6.15200043,-4.00E-02
6.15600014,-2.00E-02
6.16000032,-4.00E-02
6.16400051,-4.00E-02
6.16800022,-4.00E-02
6.17200041,-6.00E-02
6.17600012,-6.00E-02
6.18000031,-6.00E-02
6.18400049,-4.00E-02
6.1880002,-4.00E-02
6.19200039,-6.00E-02
6.1960001,-6.00E-02
6.20000029,-4.00E-02
6.20400047,-4.00E-02
6.20800018,-4.00E-02
6.21200037,-4.00E-02
6.21600008,-2.00E-02
6.22000027,-4.00E-02
6.22400045,-2.00E-02
6.22800016,-4.00E-02
6.23200035,-4.00E-02
6.23600006,-2.00E-02
6.24000025,-2.00E-02
6.24400043,-4.00E-02
6.24800014,-6.00E-02
6.25200033,-6.00E-02
6.25600052,-4.00E-02
6.26000023,-4.00E-02
6.26400042,-2.00E-02
6.26800013,-4.00E-02
6.27200031,-4.00E-02
6.2760005,-2.00E-02
6.28000021,-4.00E-02
6.2840004,-6.00E-02
6.28800011,-4.00E-02
6.29200029,-4.00E-02
6.29600048,-4.00E-02
6.30000019,-4.00E-02
6.30400038,-4.00E-02
6.30800009,-2.00E-02
6.31200027,-2.00E-02
6.31600046,-4.00E-02
6.32000017,-2.00E-02
6.32400036,-2.00E-02
6.32800007,-4.00E-02
6.33200026,-2.00E-02
6.33600044,-4.00E-02
6.34000015,0
6.34400034,-4.00E-02
6.34800053,-2.00E-02
6.35200024,-2.00E-02
6.35600042,-2.00E-02
6.36000013,-2.00E-02
6.36400032,0
6.36800051,-2.00E-02
6.37200022,-2.00E-02
6.3760004,-2.00E-02
6.38000011,-4.00E-02
6.3840003,-2.00E-02
6.38800049,-2.00E-02
6.3920002,0
6.39600039,0
6.4000001,-2.00E-02
6.40400028,-2.00E-02
6.40800047,-2.00E-02
6.41200018,0
6.41600037,0
6.42000008,-6.00E-02
6.42400026,0
6.42800045,0
6.43200016,-2.00E-02
6.43600035,0
6.44000053,0
6.44400024,-2.00E-02
6.44800043,0
6.45200014,0
6.45600033,0
6.46000051,0
6.46400023,-2.00E-02
6.46800041,2.00E-02
6.47200012,0
6.47600031,-2.00E-02
6.4800005,-4.00E-02
6.48400021,0
6.48800039,0
6.4920001,0
6.49600029,-2.00E-02
6.50000048,0
6.50400019,0
6.50800037,2.00E-02
6.51200008,0
6.51600027,-2.00E-02
6.52000046,2.00E-02
6.52400017,0
6.52800035,0
6.53200054,2.00E-02
6.53600025,2.00E-02
6.54000044,0
6.54400015,0
6.54800034,-2.00E-02
6.55200052,0
6.55600023,-2.00E-02
6.56000042,0
6.56400013,0
6.56800032,2.00E-02
6.5720005,0
6.57600021,2.00E-02
6.5800004,2.00E-02
6.58400011,0
6.5880003,2.00E-02
6.59200048,0
6.59600019,0
6.60000038,-2.00E-02
6.60400009,0
6.60800028,2.00E-02
6.61200047,2.00E-02
6.61600018,2.00E-02
6.62000036,2.00E-02
6.62400055,2.00E-02
6.62800026,2.00E-02
6.63200045,2.00E-02
6.63600016,2.00E-02
6.64000034,0
6.64400053,2.00E-02
6.64800024,0
6.65200043,0
6.65600014,2.00E-02
6.66000032,2.00E-02
6.66400051,0
6.66800022,2.00E-02
6.67200041,2.00E-02
6.67600012,2.00E-02
6.68000031,0
6.68400049,2.00E-02
6.6880002,0
6.69200039,0
6.6960001,2.00E-02
6.70000029,2.00E-02
6.70400047,2.00E-02
6.70800018,2.00E-02
6.71200037,0
6.71600056,2.00E-02
6.72000027,2.00E-02
6.72400045,4.00E-02
6.72800016,0
6.73200035,2.00E-02
6.73600054,2.00E-02
6.74000025,2.00E-02
6.74400043,2.00E-02
6.74800014,2.00E-02
6.75200033,0
6.75600052,2.00E-02
6.76000023,0
6.76400042,2.00E-02
6.76800013,2.00E-02
6.77200031,2.00E-02
6.7760005,2.00E-02
6.78000021,2.00E-02
6.7840004,2.00E-02
6.78800011,0
6.79200029,0
6.79600048,2.00E-02
6.80000019,2.00E-02
6.80400038,2.00E-02
6.80800009,2.00E-02
6.81200027,2.00E-02
6.81600046,2.00E-02
6.82000017,2.00E-02
6.82400036,0
6.82800055,0
6.83200026,0
6.83600044,2.00E-02
6.84000015,0
6.84400034,0
6.84800053,0
6.85200024,0
6.85600042,0
6.86000013,2.00E-02
6.86400032,2.00E-02
6.86800051,0
6.87200022,2.00E-02
6.8760004,2.00E-02
6.88000011,0
6.8840003,-2.00E-02
6.88800049,0
6.8920002,0
6.89600039,2.00E-02
6.9000001,2.00E-02
6.90400028,0
6.90800047,2.00E-02
6.91200018,0
6.91600037,-2.00E-02
6.92000055,-2.00E-02
6.92400026,-2.00E-02
6.92800045,-2.00E-02
6.93200016,0
6.93600035,0
6.94000053,0
6.94400024,2.00E-02
6.94800043,0
6.95200014,-2.00E-02
6.95600033,2.00E-02
6.96000051,-2.00E-02
6.96400023,0
6.96800041,0
6.97200012,0
6.97600031,-2.00E-02
6.9800005,-2.00E-02
6.98400021,0
6.98800039,-2.00E-02
6.9920001,-2.00E-02
6.99600029,0
7.00000048,-2.00E-02
7.00400019,-2.00E-02
7.00800037,0
7.01200056,0
7.01600027,0
7.02000046,-2.00E-02
7.02400017,-2.00E-02
7.02800035,-2.00E-02
7.03200054,0
7.03600025,0
7.04000044,0
7.04400015,-2.00E-02
7.04800034,0
7.05200052,-2.00E-02
7.05600023,-4.00E-02
7.06000042,0
7.06400013,0
7.06800032,-2.00E-02
7.0720005,-2.00E-02
7.07600021,-2.00E-02
7.0800004,-2.00E-02
7.08400011,0
7.0880003,-2.00E-02
7.09200048,-2.00E-02
7.09600019,0
7.10000038,0
7.10400057,-2.00E-02
7.10800028,-2.00E-02
7.11200047,-2.00E-02
7.11600018,-4.00E-02
7.12000036,-2.00E-02
7.12400055,-2.00E-02
7.12800026,-2.00E-02
7.13200045,-4.00E-02
7.13600016,-4.00E-02
7.14000034,-4.00E-02
7.14400053,-2.00E-02
7.14800024,-2.00E-02
7.15200043,-2.00E-02
7.15600014,-4.00E-02
7.16000032,-4.00E-02
7.16400051,-2.00E-02
7.16800022,-4.00E-02
7.17200041,-2.00E-02
7.17600012,-2.00E-02
7.18000031,-2.00E-02
7.18400049,-2.00E-02
7.1880002,-2.00E-02
7.19200039,-4.00E-02
7.19600058,-4.00E-02
7.20000029,-2.00E-02
7.20400047,-4.00E-02
7.20800018,-2.00E-02
7.21200037,-2.00E-02
7.21600056,-4.00E-02
7.22000027,-4.00E-02
7.22400045,-4.00E-02
7.22800016,-2.00E-02
7.23200035,-2.00E-02
7.23600054,-2.00E-02
7.24000025,-4.00E-02
7.24400043,-4.00E-02
7.24800014,-2.00E-02
7.25200033,-2.00E-02
7.25600052,-4.00E-02
7.26000023,-4.00E-02
7.26400042,-4.00E-02
7.26800013,-2.00E-02
7.27200031,-2.00E-02
7.2760005,-4.00E-02
7.28000021,0
7.2840004,0
7.28800058,0
7.29200029,0
7.29600048,-4.00E-02
7.30000019,-2.00E-02
7.30400038,-2.00E-02
7.30800056,-4.00E-02
7.31200027,-2.00E-02
7.31600046,-2.00E-02
7.32000017,-4.00E-02
7.32400036,-4.00E-02
7.32800055,-4.00E-02
7.33200026,-2.00E-02
7.33600044,-2.00E-02
7.34000015,-2.00E-02
7.34400034,-4.00E-02
7.34800053,-2.00E-02
7.35200024,-2.00E-02
7.35600042,-2.00E-02
7.36000013,-4.00E-02
7.36400032,0
7.36800051,-2.00E-02
7.37200022,-2.00E-02
7.3760004,-4.00E-02
7.38000011,-2.00E-02
7.3840003,-2.00E-02
7.38800049,-2.00E-02
7.392000198,-2.00E-02
7.396000385,-2.00E-02
7.400000572,-2.00E-02
7.404000282,-2.00E-02
7.408000469,-4.00E-02
7.412000179,-4.00E-02
7.416000366,-4.00E-02
7.420000553,-2.00E-02
7.424000263,-2.00E-02
7.42800045,-2.00E-02
7.43200016,-4.00E-02
7.436000347,-2.00E-02
7.440000534,0
7.444000244,-2.00E-02
7.448000431,-4.00E-02
7.452000141,-4.00E-02
7.456000328,-4.00E-02
7.460000515,-2.00E-02
7.464000225,-2.00E-02
7.468000412,0
7.472000122,-2.00E-02
7.476000309,-2.00E-02
7.480000496,-2.00E-02
7.484000206,-2.00E-02
7.488000393,-2.00E-02
7.49200058,-4.00E-02
7.49600029,0
7.500000477,-2.00E-02
7.504000187,0
7.508000374,0
7.512000561,-2.00E-02
7.516000271,-4.00E-02
7.520000458,-2.00E-02
7.524000168,-2.00E-02
7.528000355,-2.00E-02
7.532000542,-2.00E-02
7.536000252,-2.00E-02
7.540000439,-2.00E-02
7.544000149,-2.00E-02
7.548000336,-2.00E-02
7.552000523,-2.00E-02
7.556000233,-2.00E-02
7.56000042,-2.00E-02
7.56400013,-2.00E-02
7.568000317,-2.00E-02
7.572000504,0
7.576000214,0
7.580000401,-2.00E-02
7.584000587,-2.00E-02
7.588000298,-2.00E-02
7.592000484,0
7.596000195,-2.00E-02
7.600000381,-2.00E-02
7.604000568,-2.00E-02
7.608000278,-2.00E-02
7.612000465,0
7.616000175,-2.00E-02
7.620000362,-2.00E-02
7.624000549,0
7.628000259,-2.00E-02
7.632000446,-2.00E-02
7.636000156,0
7.640000343,0
7.64400053,-2.00E-02
7.64800024,0
7.652000427,0
7.656000137,0
7.660000324,0
7.664000511,-2.00E-02
7.668000221,-2.00E-02
7.672000408,0
7.676000595,-2.00E-02
7.680000305,0
7.684000492,-2.00E-02
7.688000202,0
7.692000389,0
7.696000576,2.00E-02
7.700000286,-2.00E-02
7.704000473,-2.00E-02
7.708000183,2.00E-02
7.71200037,-2.00E-02
7.716000557,0
7.720000267,0
7.724000454,0
7.728000164,0
7.732000351,2.00E-02
7.736000538,0
7.740000248,0
7.744000435,-2.00E-02
7.748000145,2.00E-02
7.752000332,-2.00E-02
7.756000519,-2.00E-02
7.760000229,0
7.764000416,0
7.768000603,0
7.772000313,0
7.7760005,2.00E-02
7.78000021,0
7.784000397,-2.00E-02
7.788000584,0
7.792000294,0
7.796000481,0
7.800000191,-2.00E-02
7.804000378,0
7.808000565,2.00E-02
7.812000275,0
7.816000462,0
7.820000172,0
7.824000359,0
7.828000546,2.00E-02
7.832000256,-2.00E-02
7.836000443,0
7.840000153,0
7.84400034,0
7.848000526,0
7.852000237,2.00E-02
7.856000423,0
7.86000061,0
7.86400032,0
7.868000507,0
7.872000217,0
7.876000404,2.00E-02
7.880000591,0
7.884000301,0
7.888000488,0
7.892000198,0
7.896000385,0
7.900000572,0
7.904000282,0
7.908000469,0
7.912000179,0
7.916000366,0
7.920000553,2.00E-02
7.924000263,2.00E-02
7.92800045,0
7.93200016,0
7.936000347,-2.00E-02
7.940000534,0
7.944000244,0
7.948000431,2.00E-02
7.952000141,0
7.956000328,-2.00E-02
7.960000515,0
7.964000225,-2.00E-02
7.968000412,0
7.972000599,-2.00E-02
7.976000309,0
7.980000496,2.00E-02
7.984000206,-2.00E-02
7.988000393,0
7.99200058,0
7.99600029,-2.00E-02
8,-2.00E-02
8.004000664,0
8.008000374,0
8.012000084,-2.00E-02
8.016000748,0
8.020000458,0
8.024000168,0
8.028000832,-2.00E-02
8.032000542,0
8.036000252,0
8.039999962,0
8.044000626,0
8.048000336,0
8.052000046,0
8.05600071,0
8.06000042,2.00E-02
8.06400013,0
8.068000793,0
8.072000504,-2.00E-02
8.076000214,-2.00E-02
8.079999924,0
8.084000587,0
8.088000298,0
8.092000008,-2.00E-02
8.096000671,0
8.100000381,0
8.104000092,-2.00E-02
8.108000755,0
8.112000465,0
8.116000175,-2.00E-02
8.120000839,-2.00E-02
8.124000549,-2.00E-02
8.128000259,-2.00E-02
8.131999969,0
8.136000633,0
8.140000343,-2.00E-02
8.144000053,-2.00E-02
8.148000717,0
8.152000427,0
8.156000137,-2.00E-02
8.160000801,-2.00E-02
8.164000511,0
8.168000221,-2.00E-02
8.171999931,0
8.176000595,0
8.180000305,0
8.184000015,-2.00E-02
8.188000679,-2.00E-02
8.192000389,0
8.196000099,-2.00E-02
8.200000763,0
8.204000473,0
8.208000183,0
8.212000847,0
8.216000557,-4.00E-02
8.220000267,0
8.223999977,-2.00E-02
8.228000641,0
8.232000351,0
8.236000061,-2.00E-02
8.240000725,-2.00E-02
8.244000435,0
8.248000145,-4.00E-02
8.252000809,-2.00E-02
8.256000519,-2.00E-02
8.260000229,-2.00E-02
8.263999939,0
8.268000603,0
8.272000313,-2.00E-02
8.276000023,-2.00E-02
8.280000687,-2.00E-02
8.284000397,0
8.288000107,-2.00E-02
8.292000771,-2.00E-02
8.296000481,0
8.300000191,-2.00E-02
8.304000854,0
8.308000565,-2.00E-02
8.312000275,-2.00E-02
8.315999985,-4.00E-02
8.320000648,-4.00E-02
8.324000359,0
8.328000069,-2.00E-02
8.332000732,-2.00E-02
8.336000443,-2.00E-02
8.340000153,0
8.344000816,0
8.348000526,-2.00E-02
8.352000237,0
8.355999947,0
8.36000061,-4.00E-02
8.36400032,-4.00E-02
8.368000031,-2.00E-02
8.372000694,-2.00E-02
8.376000404,-2.00E-02
8.380000114,0
8.384000778,-2.00E-02
8.388000488,-2.00E-02
8.392000198,-4.00E-02
8.396000862,-2.00E-02
8.400000572,-4.00E-02
8.404000282,-4.00E-02
8.407999992,-2.00E-02
8.412000656,0
8.416000366,-2.00E-02
8.420000076,-2.00E-02
8.42400074,-2.00E-02
8.42800045,-4.00E-02
8.43200016,-2.00E-02
8.436000824,-2.00E-02
8.440000534,0
8.444000244,-2.00E-02
8.447999954,0
8.452000618,-2.00E-02
8.456000328,-2.00E-02
8.460000038,-2.00E-02
8.464000702,0
8.468000412,-4.00E-02
8.472000122,-2.00E-02
8.476000786,-2.00E-02
8.480000496,-4.00E-02
8.484000206,0
8.48800087,-2.00E-02
8.49200058,-2.00E-02
8.49600029,-2.00E-02
8.5,-4.00E-02
8.504000664,0
8.508000374,0
8.512000084,-4.00E-02
8.516000748,-2.00E-02
8.520000458,-2.00E-02
8.524000168,-2.00E-02
8.528000832,-2.00E-02
8.532000542,0
8.536000252,-2.00E-02
8.539999962,-4.00E-02
8.544000626,0
8.548000336,-2.00E-02
8.552000046,0
8.55600071,-2.00E-02
8.56000042,-2.00E-02
8.56400013,-4.00E-02
8.568000793,-2.00E-02
8.572000504,0
8.576000214,-2.00E-02
8.580000877,-2.00E-02
8.584000587,-2.00E-02
8.588000298,-2.00E-02
8.592000008,-2.00E-02
8.596000671,0
8.600000381,-2.00E-02
8.604000092,0
8.608000755,-4.00E-02
8.612000465,-2.00E-02
8.616000175,-2.00E-02
8.620000839,-2.00E-02
8.624000549,-2.00E-02
8.628000259,-2.00E-02
8.631999969,-2.00E-02
8.636000633,0
8.640000343,0
8.644000053,-2.00E-02
8.648000717,-2.00E-02
8.652000427,-2.00E-02
8.656000137,0
8.660000801,-2.00E-02
8.664000511,-4.00E-02
8.668000221,-2.00E-02
8.672000885,0
8.676000595,-2.00E-02
8.680000305,-2.00E-02
8.684000015,0
8.688000679,0
8.692000389,0
8.696000099,-2.00E-02
8.700000763,-2.00E-02
8.704000473,0
8.708000183,-2.00E-02
8.712000847,0
8.716000557,0
8.720000267,-2.00E-02
8.723999977,-2.00E-02
8.728000641,-2.00E-02
8.732000351,-2.00E-02
8.736000061,-2.00E-02
8.740000725,0
8.744000435,0
8.748000145,-2.00E-02
8.752000809,-2.00E-02
8.756000519,-2.00E-02
8.760000229,0
8.764000893,-2.00E-02
8.768000603,-2.00E-02
8.772000313,0
8.776000023,-2.00E-02
8.780000687,0
8.784000397,-2.00E-02
8.788000107,0
8.792000771,-2.00E-02
8.796000481,0
8.800000191,0
8.804000854,-2.00E-02
8.808000565,0
8.812000275,-2.00E-02
8.815999985,0
8.820000648,-2.00E-02
8.824000359,-2.00E-02
8.828000069,-2.00E-02
8.832000732,0
8.836000443,2.00E-02
8.840000153,0
8.844000816,0
8.848000526,-2.00E-02
8.852000237,0
8.855999947,-2.00E-02
8.86000061,0
8.86400032,0
8.868000031,2.00E-02
8.872000694,0
8.876000404,0
8.880000114,0
8.884000778,-2.00E-02
8.888000488,0
8.892000198,0
8.896000862,-2.00E-02
8.900000572,-2.00E-02
8.904000282,0
8.907999992,-2.00E-02
8.912000656,-2.00E-02
8.916000366,0
8.920000076,-2.00E-02
8.92400074,-2.00E-02
8.92800045,-2.00E-02
8.93200016,0
8.936000824,0
8.940000534,0
8.944000244,0
8.947999954,0
8.952000618,0
8.956000328,0
8.960000038,0
8.964000702,0
8.968000412,2.00E-02
8.972000122,0
8.976000786,-2.00E-02
8.980000496,0
8.984000206,-2.5599999
8.98800087,-2.5599999
8.99200058,-2.5599999
8.99600029,-2.5599999
9,-2.5599999
9.004000664,-2.5599999
9.008000374,-2.5599999
9.012000084,-2.5599999
9.016000748,-2.5599999
9.020000458,-2.5599999
9.024000168,-2.5599999
9.028000832,-2.5599999
9.032000542,-2.5599999
9.036000252,-2.5599999
9.039999962,-2.5599999
9.044000626,-2.5599999
9.048000336,-2.5599999
9.052000046,-2.5599999
9.05600071,-2.5599999
9.06000042,-2.5599999
9.06400013,-2.5599999
9.068000793,-2.5599999
9.072000504,-2.5599999
9.076000214,-2.5599999
9.080000877,-2.5599999
9.084000587,-2.5599999
9.088000298,-2.5599999
9.092000008,-2.5599999
9.096000671,-2.5599999
9.100000381,-2.5599999
9.104000092,-2.5599999
9.108000755,-2.5599999
9.112000465,-2.5599999
9.116000175,-2.5599999
9.120000839,-2.5599999
9.124000549,-2.5599999
9.128000259,-2.5599999
9.131999969,-2.5599999
9.136000633,-2.5599999
9.140000343,-2.5599999
9.144000053,-2.5599999
9.148000717,-2.5599999
9.152000427,-2.5599999
9.156000137,-2.5599999
9.160000801,-2.5599999
9.164000511,-2.5599999
9.168000221,-2.5599999
9.172000885,-2.5599999
9.176000595,-2.5599999
9.180000305,-2.5599999
9.184000015,-2.5599999
9.188000679,-2.5599999
9.192000389,-2.5599999
9.196000099,-2.5599999
9.200000763,-2.5599999
9.204000473,-2.5599999
9.208000183,-2.5599999
9.212000847,-2.5599999
9.216000557,-2.5599999
9.220000267,-2.5599999
9.223999977,-2.5599999
9.228000641,-2.5599999
9.232000351,-2.5599999
9.236000061,-2.5599999
9.240000725,-2.5599999
9.244000435,-2.5599999
9.248000145,-2.5599999
9.252000809,-2.5599999
9.256000519,-2.5599999
9.260000229,-2.5599999
9.264000893,-2.5599999
9.268000603,-2.5599999
9.272000313,-2.5599999
9.276000023,-2.5599999
9.280000687,-2.5599999
9.284000397,-2.5599999
9.288000107,-2.5599999
9.292000771,-2.5599999
9.296000481,-2.5599999
9.300000191,-2.5599999
9.304000854,-2.5599999
9.308000565,-2.5599999
9.312000275,-2.5599999
9.315999985,-2.5599999
9.320000648,-2.5599999
9.324000359,-2.5599999
9.328000069,-2.5599999
9.332000732,-2.5599999
9.336000443,-2.5599999
9.340000153,-2.5599999
9.344000816,-2.5599999
9.348000526,-2.5599999
9.352000237,-2.5599999
9.3560009,-2.5599999
9.36000061,-2.5599999
9.36400032,-2.5599999
9.368000031,-2.5599999
9.372000694,-2.5599999
9.376000404,-2.5599999
9.380000114,-2.5599999
9.384000778,-2.5599999
9.388000488,-2.5599999
9.392000198,-2.5599999
9.396000862,-2.5599999
9.400000572,-2.5599999
9.404000282,-2.5599999
9.407999992,-2.5599999
9.412000656,-2.5599999
9.416000366,-2.5599999
9.420000076,-2.5599999
9.42400074,-2.5599999
9.42800045,-2.5599999
9.43200016,-2.5599999
9.436000824,-2.5599999
9.440000534,-2.5599999
9.444000244,-2.5599999
9.448000908,-2.5599999
9.452000618,-2.5599999
9.456000328,-2.5599999
9.460000038,-2.5599999
9.464000702,-2.5599999
9.468000412,-2.5599999
9.472000122,-2.5599999
9.476000786,-2.5599999
9.480000496,-2.5599999
9.484000206,-2.5599999
9.48800087,-2.5599999
9.49200058,-2.5599999
9.49600029,-2.5599999
9.5,-2.5599999
9.504000664,-2.5599999
9.508000374,-2.5599999
9.512000084,-2.5599999
9.516000748,-2.5599999
9.520000458,-2.5599999
9.524000168,-2.5599999
9.528000832,-2.5599999
9.532000542,-2.5599999
9.536000252,-2.5599999
9.540000916,-2.5599999
9.544000626,-2.5599999
9.548000336,-2.5599999
9.552000046,-2.5599999
9.55600071,-2.5599999
9.56000042,-2.5599999
9.56400013,-2.5599999
9.568000793,-2.5599999
9.572000504,-2.5599999
9.576000214,-2.5599999
9.580000877,-2.5599999
9.584000587,-2.5599999
9.588000298,-2.5599999
9.592000008,-2.5599999
9.596000671,-2.5599999
9.600000381,-2.5599999
9.604000092,-2.5599999
9.608000755,-2.5599999
9.612000465,-2.5599999
9.616000175,-2.5599999
9.620000839,-2.5599999
9.624000549,-2.5599999
9.628000259,-2.5599999
9.632000923,-2.5599999
9.636000633,-2.5599999
9.640000343,-2.5599999
9.644000053,-2.5599999
9.648000717,-2.5599999
9.652000427,-2.5599999
9.656000137,-2.5599999
9.660000801,-2.5599999
9.664000511,-2.5599999
9.668000221,-2.5599999
9.672000885,-2.5599999
9.676000595,-2.5599999
9.680000305,-2.5599999
9.684000015,-2.5599999
9.688000679,-2.5599999
9.692000389,-2.5599999
9.696000099,-2.5599999
9.700000763,-2.5599999
9.704000473,-2.5599999
9.708000183,-2.5599999
9.712000847,-2.5599999
9.716000557,-2.5599999
9.720000267,-2.5599999
9.724000931,-2.5599999
9.728000641,-2.5599999
9.732000351,-2.5599999
9.736000061,-2.5599999
9.740000725,-2.5599999
9.744000435,-2.5599999
9.748000145,-2.5599999
9.752000809,-2.5599999
9.756000519,-2.5599999
9.760000229,-2.5599999
9.764000893,-2.5599999
9.768000603,-2.5599999
9.772000313,-2.5599999
9.776000023,-2.5599999
9.780000687,-2.5599999
9.784000397,-2.5599999
9.788000107,-2.5599999
9.792000771,-2.5599999
9.796000481,-2.5599999
9.800000191,-2.5599999
9.804000854,-2.5599999
9.808000565,-2.5599999
9.812000275,-2.5599999
9.816000938,-2.5599999
9.820000648,-2.5599999
9.824000359,-2.5599999
9.828000069,-2.5599999
9.832000732,-2.5599999
9.836000443,-2.5599999
9.840000153,-2.5599999
9.844000816,-2.5599999
9.848000526,-2.5599999
9.852000237,-2.5599999
9.8560009,-2.5599999
9.86000061,-2.5599999
9.86400032,-2.5599999
9.868000031,-2.5599999
9.872000694,-2.5599999
9.876000404,-2.5599999
9.880000114,-2.5599999
9.884000778,-2.5599999
9.888000488,-2.5599999
9.892000198,-2.5599999
9.896000862,-2.5599999
9.900000572,-2.5599999
9.904000282,-2.5599999
9.908000946,-2.5599999
9.912000656,-2.5599999
9.916000366,-2.5599999
9.920000076,-2.5599999
9.92400074,-2.5599999
9.92800045,-2.5599999
9.93200016,-2.5599999
9.936000824,-2.5599999
9.940000534,-2.5599999
9.944000244,-2.5599999
9.948000908,-2.5599999
9.952000618,-2.5599999
9.956000328,-2.5599999
9.960000038,-2.5599999
9.964000702,-2.5599999
9.968000412,-2.5599999
9.972000122,-2.5599999
9.976000786,-2.5599999
9.980000496,-2.5599999
9.984000206,-1.0599999
9.98800087,-1.0599999
9.99200058,-1.0599999
9.99600029,-1.0799999
